# column 1: index
# column 2: distance [A]
# column 3: RDF histogram
# column 4: unnormalized distance histogram
0 0.012000 0.000000 0.000000
1 0.036000 0.000000 0.000000
2 0.060000 0.000000 0.000000
3 0.084000 0.000000 0.000000
4 0.108000 0.000000 0.000000
5 0.132000 0.000000 0.000000
6 0.156000 0.000000 0.000000
7 0.180000 0.000000 0.000000
8 0.204000 0.000000 0.000000
9 0.228000 0.000000 0.000000
10 0.252000 0.000000 0.000000
11 0.276000 0.000000 0.000000
12 0.300000 0.000000 0.000000
13 0.324000 0.000000 0.000000
14 0.348000 0.000000 0.000000
15 0.372000 0.000000 0.000000
16 0.396000 0.000000 0.000000
17 0.420000 0.000000 0.000000
18 0.444000 0.000000 0.000000
19 0.468000 0.000000 0.000000
20 0.492000 0.000000 0.000000
21 0.516000 0.000000 0.000000
22 0.540000 0.000000 0.000000
23 0.564000 0.000000 0.000000
24 0.588000 0.000000 0.000000
25 0.612000 0.000000 0.000000
26 0.636000 0.000000 0.000000
27 0.660000 0.000000 0.000000
28 0.684000 0.000000 0.000000
29 0.708000 0.000000 0.000000
30 0.732000 0.000000 0.000000
31 0.756000 0.000000 0.000000
32 0.780000 0.000000 0.000000
33 0.804000 0.000000 0.000000
34 0.828000 0.000000 0.000000
35 0.852000 0.000000 0.000000
36 0.876000 0.000000 0.000000
37 0.900000 0.000000 0.000000
38 0.924000 0.000000 0.000000
39 0.948000 0.000000 0.000000
40 0.972000 0.000000 0.000000
41 0.996000 0.000000 0.000000
42 1.020000 0.000000 0.000000
43 1.044000 0.000000 0.000000
44 1.068000 0.000000 0.000000
45 1.092000 0.000000 0.000000
46 1.116000 0.000000 0.000000
47 1.140000 0.000000 0.000000
48 1.164000 0.000000 0.000000
49 1.188000 0.000000 0.000000
50 1.212000 0.000000 0.000000
51 1.236000 0.000000 0.000000
52 1.260000 0.000000 0.000000
53 1.284000 0.000000 0.000000
54 1.308000 0.000000 0.000000
55 1.332000 0.000000 0.000000
56 1.356000 0.000000 0.000000
57 1.380000 0.000000 0.000000
58 1.404000 0.000000 0.000000
59 1.428000 0.000000 0.000000
60 1.452000 0.000000 0.000000
61 1.476000 0.000000 0.000000
62 1.500000 0.000000 0.000000
63 1.524000 0.000000 0.000000
64 1.548000 0.000000 0.000000
65 1.572000 0.000000 0.000000
66 1.596000 0.000000 0.000000
67 1.620000 0.000000 0.000000
68 1.644000 0.000000 0.000000
69 1.668000 0.000000 0.000000
70 1.692000 0.000000 0.000000
71 1.716000 0.000000 0.000000
72 1.740000 0.000000 0.000000
73 1.764000 0.000000 0.000000
74 1.788000 0.000000 0.000000
75 1.812000 0.000000 0.000000
76 1.836000 0.000000 0.000000
77 1.860000 0.000000 0.000000
78 1.884000 0.000000 0.000000
79 1.908000 0.000000 0.000000
80 1.932000 0.000000 0.000000
81 1.956000 0.000000 0.000000
82 1.980000 0.000000 0.000000
83 2.004000 0.000000 0.000000
84 2.028000 0.000000 0.000000
85 2.052000 0.000000 0.000000
86 2.076000 0.000000 0.000000
87 2.100000 0.000000 0.000000
88 2.124000 0.000000 0.000000
89 2.148000 0.000000 0.000000
90 2.172000 0.000000 0.000000
91 2.196000 0.000000 0.000000
92 2.220000 0.000000 0.000000
93 2.244000 0.000000 0.000000
94 2.268000 0.000000 0.000000
95 2.292000 0.000000 0.000000
96 2.316000 0.000000 0.000000
97 2.340000 0.000003 0.000040
98 2.364000 0.000056 0.000800
99 2.388000 0.000607 0.008920
100 2.412000 0.003900 0.058480
101 2.436000 0.014354 0.219520
102 2.460000 0.043718 0.681840
103 2.484000 0.110740 1.761000
104 2.508000 0.234837 3.806920
105 2.532000 0.441002 7.286520
106 2.556000 0.736646 12.403160
107 2.580000 1.101952 18.904000
108 2.604000 1.505563 26.310720
109 2.628000 1.909778 33.992680
110 2.652000 2.265502 41.064200
111 2.676000 2.565279 47.343320
112 2.700000 2.738343 51.447840
113 2.724000 2.835147 54.217760
114 2.748000 2.838428 55.241200
115 2.772000 2.778969 55.032840
116 2.796000 2.671064 53.815880
117 2.820000 2.517636 51.599200
118 2.844000 2.333480 48.642400
119 2.868000 2.167232 45.942600
120 2.892000 1.978290 42.642080
121 2.916000 1.821825 39.923960
122 2.940000 1.682482 37.479760
123 2.964000 1.532852 34.706320
124 2.988000 1.407177 32.378880
125 3.012000 1.305531 30.524520
126 3.036000 1.207593 28.686400
127 3.060000 1.140633 27.525840
128 3.084000 1.076683 26.391760
129 3.108000 1.023124 25.470760
130 3.132000 0.976187 24.679040
131 3.156000 0.934260 23.982440
132 3.180000 0.905389 23.596160
133 3.204000 0.880079 23.284040
134 3.228000 0.854307 22.942080
135 3.252000 0.836772 22.806560
136 3.276000 0.820578 22.696520
137 3.300000 0.813247 22.824560
138 3.324000 0.806172 22.956280
139 3.348000 0.808160 23.346400
140 3.372000 0.800710 23.464000
141 3.396000 0.801108 23.811040
142 3.420000 0.801812 24.170000
143 3.444000 0.804516 24.593080
144 3.468000 0.805206 24.958400
145 3.492000 0.808128 25.396880
146 3.516000 0.814941 25.964240
147 3.540000 0.821014 26.516040
148 3.564000 0.824208 26.981360
149 3.588000 0.831674 27.593680
150 3.612000 0.846300 28.455840
151 3.636000 0.847186 28.865440
152 3.660000 0.853069 29.450880
153 3.684000 0.870727 30.456000
154 3.708000 0.875892 31.037160
155 3.732000 0.883933 31.728840
156 3.756000 0.900873 32.754160
157 3.780000 0.908790 33.465640
158 3.804000 0.922595 34.406760
159 3.828000 0.938025 35.425000
160 3.852000 0.947325 36.226240
161 3.876000 0.962839 37.279760
162 3.900000 0.968010 37.945560
163 3.924000 0.983220 39.017600
164 3.948000 0.994922 39.966400
165 3.972000 1.009758 41.057040
166 3.996000 1.016096 41.815520
167 4.020000 1.024642 42.675240
168 4.044000 1.042350 43.932680
169 4.068000 1.055418 45.013040
170 4.092000 1.063191 45.881160
171 4.116000 1.071101 46.766280
172 4.140000 1.080435 47.725560
173 4.164000 1.089828 48.700240
174 4.188000 1.099216 49.687600
175 4.212000 1.106735 50.602520
176 4.236000 1.107019 51.193960
177 4.260000 1.114099 52.106840
178 4.284000 1.125191 53.220240
179 4.308000 1.124911 53.804840
180 4.332000 1.130086 54.656320
181 4.356000 1.136158 55.560520
182 4.380000 1.139049 56.317400
183 4.404000 1.143552 57.161320
184 4.428000 1.142978 57.757040
185 4.452000 1.141345 58.301400
186 4.476000 1.139402 58.831360
187 4.500000 1.144418 59.725720
188 4.524000 1.144006 60.342760
189 4.548000 1.143380 60.951360
190 4.572000 1.139587 61.392000
191 4.596000 1.137299 61.913640
192 4.620000 1.132129 62.277600
193 4.644000 1.123227 62.431520
194 4.668000 1.121534 62.983360
195 4.692000 1.112306 63.109120
196 4.716000 1.109232 63.580200
197 4.740000 1.107958 64.155200
198 4.764000 1.096385 64.129600
199 4.788000 1.086689 64.204480
200 4.812000 1.078365 64.353000
201 4.836000 1.067240 64.326000
202 4.860000 1.063299 64.726160
203 4.884000 1.053509 64.765120
204 4.908000 1.042316 64.708360
205 4.932000 1.032133 64.704360
206 4.956000 1.027915 65.068640
207 4.980000 1.017110 65.009720
208 5.004000 1.014315 65.457480
209 5.028000 1.000744 65.202680
210 5.052000 0.993563 65.354280
211 5.076000 0.984915 65.402440
212 5.100000 0.974696 65.337320
213 5.124000 0.966516 65.400200
214 5.148000 0.954667 65.204960
215 5.172000 0.953652 65.744400
216 5.196000 0.941046 65.478840
217 5.220000 0.935741 65.712560
218 5.244000 0.934582 66.236040
219 5.268000 0.924654 66.133680
220 5.292000 0.919179 66.342440
221 5.316000 0.913574 66.537360
222 5.340000 0.910982 66.949000
223 5.364000 0.905300 67.130840
224 5.388000 0.899593 67.305880
225 5.412000 0.899220 67.878680
226 5.436000 0.896124 68.246280
227 5.460000 0.894765 68.745800
228 5.484000 0.893659 69.265720
229 5.508000 0.894700 69.954720
230 5.532000 0.891645 70.324720
231 5.556000 0.891148 70.896680
232 5.580000 0.891059 71.503360
233 5.604000 0.891801 72.179880
234 5.628000 0.894694 73.035600
235 5.652000 0.892042 73.441480
236 5.676000 0.900827 74.795920
237 5.700000 0.900488 75.401400
238 5.724000 0.904723 76.395280
239 5.748000 0.904051 76.980080
240 5.772000 0.906515 77.835840
241 5.796000 0.911708 78.934040
242 5.820000 0.915105 79.885640
243 5.844000 0.921574 81.115200
244 5.868000 0.928235 82.373960
245 5.892000 0.923386 82.615360
246 5.916000 0.932808 84.139560
247 5.940000 0.935777 85.093600
248 5.964000 0.941366 86.294960
249 5.988000 0.947587 87.565800
250 6.012000 0.948344 88.339600
251 6.036000 0.954112 89.588000
252 6.060000 0.958956 90.760280
253 6.084000 0.969595 92.495520
254 6.108000 0.971733 93.432280
255 6.132000 0.973126 94.302920
256 6.156000 0.980770 95.789160
257 6.180000 0.983003 96.757240
258 6.204000 0.989375 98.142320
259 6.228000 1.000867 100.051920
260 6.252000 0.996595 100.394200
261 6.276000 1.004253 101.943760
262 6.300000 1.011744 103.491200
263 6.324000 1.018286 104.955560
264 6.348000 1.017971 105.720960
265 6.372000 1.020736 106.811160
266 6.396000 1.022655 107.819600
267 6.420000 1.028970 109.301120
268 6.444000 1.034373 110.698080
269 6.468000 1.038979 112.020760
270 6.492000 1.038623 112.814960
271 6.516000 1.041359 113.950000
272 6.540000 1.046268 115.332080
273 6.564000 1.045574 116.103080
274 6.588000 1.048862 117.321440
275 6.612000 1.051806 118.509520
276 6.636000 1.048721 119.021240
277 6.660000 1.051536 120.205560
278 6.684000 1.052609 121.196920
279 6.708000 1.051022 121.884840
280 6.732000 1.052189 122.894920
281 6.756000 1.055335 124.142760
282 6.780000 1.051461 124.567400
283 6.804000 1.052125 125.530080
284 6.828000 1.052992 126.521320
285 6.852000 1.054085 127.544600
286 6.876000 1.049053 127.826520
287 6.900000 1.047374 128.514440
288 6.924000 1.049289 129.646560
289 6.948000 1.045079 130.023120
290 6.972000 1.046989 131.162240
291 6.996000 1.045035 131.820240
292 7.020000 1.042186 132.364440
293 7.044000 1.041047 133.125400
294 7.068000 1.039480 133.832280
295 7.092000 1.036359 134.338200
296 7.116000 1.033556 134.883120
297 7.140000 1.034424 135.908600
298 7.164000 1.032756 136.603080
299 7.188000 1.027198 136.779800
300 7.212000 1.024354 137.313560
301 7.236000 1.023284 138.084520
302 7.260000 1.019568 138.497320
303 7.284000 1.019935 139.464720
304 7.308000 1.013732 139.531480
305 7.332000 1.016745 140.866840
306 7.356000 1.013845 141.386120
307 7.380000 1.013059 142.199880
308 7.404000 1.008699 142.510240
309 7.428000 1.008737 143.441080
310 7.452000 1.008899 144.392680
311 7.476000 1.006986 145.048640
312 7.500000 1.005506 145.766920
313 7.524000 1.003941 146.473000
314 7.548000 1.001482 147.047840
315 7.572000 1.001720 148.019640
316 7.596000 0.999599 148.644120
317 7.620000 0.996291 149.089760
318 7.644000 0.994088 149.698720
319 7.668000 0.991203 150.203080
320 7.692000 0.992314 151.314160
321 7.716000 0.994388 152.578040
322 7.740000 0.991227 153.040640
323 7.764000 0.991890 154.094280
324 7.788000 0.990373 154.811240
325 7.812000 0.990560 155.796320
326 7.836000 0.989583 156.600440
327 7.860000 0.987234 157.187080
328 7.884000 0.988182 158.300360
329 7.908000 0.988077 159.248760
330 7.932000 0.987820 160.175120
331 7.956000 0.990242 161.540920
332 7.980000 0.987792 162.115000
333 8.004000 0.989095 163.306640
334 8.028000 0.990812 164.572680
335 8.052000 0.988462 165.165440
336 8.076000 0.990092 166.425480
337 8.100000 0.991967 167.733200
338 8.124000 0.994303 169.126040
339 8.148000 0.993854 170.049840
340 8.172000 0.993224 170.944680
341 8.196000 0.992009 171.739880
342 8.220000 0.992175 172.776200
343 8.244000 0.991938 173.744920
344 8.268000 0.994972 175.292600
345 8.292000 0.995201 176.352320
346 8.316000 0.996552 177.615480
347 8.340000 0.996152 178.570360
348 8.364000 0.995066 179.403840
349 8.388000 0.994216 180.280840
350 8.412000 0.995695 181.583600
351 8.436000 0.997522 182.956280
352 8.460000 0.995790 183.679360
353 8.484000 0.997774 185.090960
354 8.508000 0.993556 185.352720
355 8.532000 0.998082 187.249040
356 8.556000 0.999439 188.560000
357 8.580000 0.999411 189.613960
358 8.604000 0.998459 190.494720
359 8.628000 0.998517 191.570000
360 8.652000 0.996751 192.296640
361 8.676000 0.999654 193.928040
362 8.700000 1.000608 195.188560
363 8.724000 0.997356 195.629040
364 8.748000 0.999645 197.158320
365 8.772000 0.998818 198.077560
366 8.796000 1.001776 199.752760
367 8.820000 0.998019 200.091200
368 8.844000 1.000015 201.583880
369 8.868000 0.999489 202.572800
370 8.892000 1.000803 203.938640
371 8.916000 1.000380 204.954280
372 8.940000 0.999804 205.940560
373 8.964000 1.001902 207.482080
374 8.988000 1.002872 208.796640
375 9.012000 1.003204 209.982600
376 9.036000 1.002020 210.853320
377 9.060000 1.007043 213.037520
378 9.084000 1.001204 212.925880
379 9.108000 1.003787 214.604760
380 9.132000 1.003304 215.633480
381 9.156000 1.003996 216.917960
382 9.180000 1.001412 217.495280
383 9.204000 0.999470 218.210120
384 9.228000 1.001712 219.841640
385 9.252000 1.002827 221.232520
386 9.276000 1.000101 221.777280
387 9.300000 1.003081 223.590800
388 9.324000 1.000170 224.094000
389 9.348000 0.998034 224.768120
390 9.372000 1.002471 226.928160
391 9.396000 1.002772 228.160160
392 9.420000 1.001009 228.924200
393 9.444000 0.999933 229.844680
394 9.468000 0.997514 230.455680
395 9.492000 0.998270 231.800880
396 9.516000 0.999197 233.190920
397 9.540000 1.000857 234.758080
398 9.564000 1.000932 235.958360
399 9.588000 1.001178 237.202400
400 9.612000 1.000134 238.142920
401 9.636000 0.998402 238.919080
402 9.660000 1.000765 240.679000
403 9.684000 0.998015 241.211720
404 9.708000 0.998338 242.487240
405 9.732000 0.996854 243.325560
406 9.756000 0.994681 243.993920
407 9.780000 0.996284 245.591080
408 9.804000 0.995823 246.683800
409 9.828000 0.995644 247.848560
410 9.852000 0.998198 249.699320
411 9.876000 0.995661 250.279640
412 9.900000 0.995280 251.401360
413 9.924000 0.997197 253.108280
414 9.948000 0.999087 254.815880
415 9.972000 0.999948 256.267600
416 9.996000 1.001275 257.844480
417 10.020000 0.999498 258.624320
418 10.044000 1.003219 260.832040
419 10.068000 0.999307 261.058080
420 10.092000 1.000153 262.526320
421 10.116000 1.000028 263.743320
422 10.140000 1.003506 265.917920
423 10.164000 1.001918 266.755400
424 10.188000 1.001878 268.005920
425 10.212000 1.000459 268.888760
426 10.236000 1.003007 270.842200
427 10.260000 1.004849 272.613360
428 10.284000 1.003444 273.507320
429 10.308000 1.003271 274.738080
430 10.332000 1.004958 276.483000
431 10.356000 1.003265 277.301080
432 10.380000 1.003408 278.627600
433 10.404000 1.004978 280.355440
434 10.428000 1.006853 282.176000
435 10.452000 1.003113 282.423240
436 10.476000 1.004605 284.143880
437 10.500000 1.005641 285.741480
438 10.524000 1.004446 286.708120
439 10.548000 1.003801 287.832320
440 10.572000 1.003573 289.077960
441 10.596000 1.006862 291.343800
442 10.620000 1.008846 293.241560
443 10.644000 1.006400 293.854480
444 10.668000 1.006879 295.321640
445 10.692000 1.005374 296.208360
446 10.716000 1.004861 297.387880
447 10.740000 1.005177 298.815240
448 10.764000 1.006620 300.583160
449 10.788000 1.004170 301.190360
450 10.812000 1.005830 303.031960
451 10.836000 1.004917 304.102560
452 10.860000 1.006910 306.056840
453 10.884000 1.007818 307.688320
454 10.908000 1.005780 308.421800
455 10.932000 1.003771 309.161680
456 10.956000 1.006322 311.309840
457 10.980000 1.008214 313.263080
458 11.004000 1.007578 314.435680
459 11.028000 1.006448 315.454320
460 11.052000 1.007651 317.207760
461 11.076000 1.004834 317.696320
462 11.100000 1.006511 319.606880
463 11.124000 1.007579 321.331320
464 11.148000 1.007598 322.725320
465 11.172000 1.005406 323.411240
466 11.196000 1.005390 324.797040
467 11.220000 1.004816 326.004880
468 11.244000 1.002947 326.791960
469 11.268000 1.003027 328.214760
470 11.292000 1.002980 329.598920
471 11.316000 1.001943 330.659120
472 11.340000 1.002894 332.378600
473 11.364000 1.001214 333.227920
474 11.388000 1.004375 335.693240
475 11.412000 1.002586 336.509320
476 11.436000 1.005535 338.920200
477 11.460000 1.002857 339.437600
478 11.484000 1.005514 341.764160
479 11.508000 1.005635 343.235200
480 11.532000 1.004672 344.338280
481 11.556000 1.003485 345.364720
482 11.580000 1.003070 346.657280
483 11.604000 1.002815 348.007240
484 11.628000 1.001389 348.951080
485 11.652000 1.002815 350.892240
486 11.676000 1.003772 352.675200
487 11.700000 1.004152 354.260840
488 11.724000 1.003762 355.577280
489 11.748000 1.002939 356.742040
490 11.772000 1.003597 358.435880
491 11.796000 1.002985 359.679480
492 11.820000 1.004135 361.558800
493 11.844000 1.003346 362.743160
494 11.868000 1.004191 364.521600
495 11.892000 1.002052 365.217640
496 11.916000 1.002184 366.741640
497 11.940000 1.002580 368.366000
498 11.964000 1.001827 369.570560
499 11.988000 1.003025 371.498360
