# column 1: index
# column 2: distance [A]
# column 3: RDF histogram
# column 4: unnormalized distance histogram
0 0.012000 0.000000 0.000000
1 0.036000 0.000000 0.000000
2 0.060000 0.000000 0.000000
3 0.084000 0.000000 0.000000
4 0.108000 0.000000 0.000000
5 0.132000 0.000000 0.000000
6 0.156000 0.000000 0.000000
7 0.180000 0.000000 0.000000
8 0.204000 0.000000 0.000000
9 0.228000 0.000000 0.000000
10 0.252000 0.000000 0.000000
11 0.276000 0.000000 0.000000
12 0.300000 0.000000 0.000000
13 0.324000 0.000000 0.000000
14 0.348000 0.000000 0.000000
15 0.372000 0.000000 0.000000
16 0.396000 0.000000 0.000000
17 0.420000 0.000000 0.000000
18 0.444000 0.000000 0.000000
19 0.468000 0.000000 0.000000
20 0.492000 0.000000 0.000000
21 0.516000 0.000000 0.000000
22 0.540000 0.000000 0.000000
23 0.564000 0.000000 0.000000
24 0.588000 0.000000 0.000000
25 0.612000 0.000000 0.000000
26 0.636000 0.000000 0.000000
27 0.660000 0.000000 0.000000
28 0.684000 0.000000 0.000000
29 0.708000 0.000000 0.000000
30 0.732000 0.000000 0.000000
31 0.756000 0.000000 0.000000
32 0.780000 0.000000 0.000000
33 0.804000 0.000000 0.000000
34 0.828000 0.000000 0.000000
35 0.852000 0.000000 0.000000
36 0.876000 0.000000 0.000000
37 0.900000 0.000000 0.000000
38 0.924000 0.000000 0.000000
39 0.948000 0.000000 0.000000
40 0.972000 0.000000 0.000000
41 0.996000 0.000000 0.000000
42 1.020000 0.000000 0.000000
43 1.044000 0.000000 0.000000
44 1.068000 0.000000 0.000000
45 1.092000 0.000000 0.000000
46 1.116000 0.000000 0.000000
47 1.140000 0.000000 0.000000
48 1.164000 0.000000 0.000000
49 1.188000 0.000000 0.000000
50 1.212000 0.000000 0.000000
51 1.236000 0.000000 0.000000
52 1.260000 0.000000 0.000000
53 1.284000 0.000000 0.000000
54 1.308000 0.000000 0.000000
55 1.332000 0.000000 0.000000
56 1.356000 0.000000 0.000000
57 1.380000 0.000000 0.000000
58 1.404000 0.000002 0.000020
59 1.428000 0.000114 0.001200
60 1.452000 0.000884 0.009620
61 1.476000 0.003765 0.042360
62 1.500000 0.011416 0.132660
63 1.524000 0.030781 0.369220
64 1.548000 0.070055 0.866980
65 1.572000 0.135716 1.732080
66 1.596000 0.240717 3.166680
67 1.620000 0.375907 5.094960
68 1.644000 0.544375 7.598580
69 1.668000 0.721103 10.361440
70 1.692000 0.899277 13.296120
71 1.716000 1.040019 15.816360
72 1.740000 1.172049 18.326320
73 1.764000 1.258186 20.219620
74 1.788000 1.302768 21.509640
75 1.812000 1.310901 22.228860
76 1.836000 1.289865 22.455380
77 1.860000 1.243292 22.214160
78 1.884000 1.185276 21.727620
79 1.908000 1.112366 20.913920
80 1.932000 1.025479 19.768420
81 1.956000 0.944820 18.668860
82 1.980000 0.865690 17.527640
83 2.004000 0.790310 16.391700
84 2.028000 0.717129 15.232260
85 2.052000 0.650811 14.152740
86 2.076000 0.589897 13.129920
87 2.100000 0.535489 12.196080
88 2.124000 0.485267 11.306300
89 2.148000 0.442815 10.551680
90 2.172000 0.409335 9.973080
91 2.196000 0.380197 9.469000
92 2.220000 0.350258 8.915060
93 2.244000 0.328320 8.538360
94 2.268000 0.305718 8.121520
95 2.292000 0.291539 7.909640
96 2.316000 0.276088 7.648140
97 2.340000 0.266954 7.549180
98 2.364000 0.257010 7.417800
99 2.388000 0.252122 7.425240
100 2.412000 0.248434 7.464440
101 2.436000 0.247051 7.571320
102 2.460000 0.249429 7.795560
103 2.484000 0.250977 7.997760
104 2.508000 0.257041 8.350040
105 2.532000 0.265782 8.800020
106 2.556000 0.276515 9.329780
107 2.580000 0.288997 9.934900
108 2.604000 0.309013 10.821540
109 2.628000 0.326566 11.648020
110 2.652000 0.351785 12.777760
111 2.676000 0.379155 14.022320
112 2.700000 0.411822 15.504860
113 2.724000 0.453078 17.362740
114 2.748000 0.493279 19.237860
115 2.772000 0.544966 21.626540
116 2.796000 0.599409 24.200740
117 2.820000 0.661233 27.157100
118 2.844000 0.730366 30.509180
119 2.868000 0.801229 34.036560
120 2.892000 0.873871 37.746320
121 2.916000 0.958169 42.077300
122 2.940000 1.034895 46.197860
123 2.964000 1.112859 50.492540
124 2.988000 1.190855 54.909940
125 3.012000 1.264572 59.249460
126 3.036000 1.328008 63.217200
127 3.060000 1.385426 66.997280
128 3.084000 1.433563 70.416820
129 3.108000 1.473829 73.525860
130 3.132000 1.506794 76.335820
131 3.156000 1.525834 78.489600
132 3.180000 1.539572 80.405360
133 3.204000 1.539292 81.608760
134 3.228000 1.531954 82.441080
135 3.252000 1.516159 82.808820
136 3.276000 1.500092 83.145060
137 3.300000 1.473125 82.851100
138 3.324000 1.444427 82.423000
139 3.348000 1.415018 81.915080
140 3.372000 1.386025 81.391120
141 3.396000 1.354357 80.667660
142 3.420000 1.320175 79.747040
143 3.444000 1.291690 79.125300
144 3.468000 1.259410 78.226900
145 3.492000 1.233219 77.663940
146 3.516000 1.204271 76.886960
147 3.540000 1.180636 76.410540
148 3.564000 1.156513 75.867680
149 3.588000 1.138211 75.676060
150 3.612000 1.117762 75.314000
151 3.636000 1.104561 75.416820
152 3.660000 1.089927 75.403300
153 3.684000 1.078413 75.588380
154 3.708000 1.068943 75.904020
155 3.732000 1.059179 76.187440
156 3.756000 1.050014 76.502740
157 3.780000 1.044648 77.087620
158 3.804000 1.036999 77.497980
159 3.828000 1.036173 78.416400
160 3.852000 1.032290 79.105200
161 3.876000 1.028767 79.820680
162 3.900000 1.022452 80.316200
163 3.924000 1.020297 81.136320
164 3.948000 1.022897 82.341200
165 3.972000 1.018822 83.013320
166 3.996000 1.017804 83.935520
167 4.020000 1.013705 84.604720
168 4.044000 1.011067 85.395140
169 4.068000 1.008107 86.158760
170 4.092000 1.006038 86.999460
171 4.116000 1.003609 87.810460
172 4.140000 1.002250 88.717180
173 4.164000 1.000305 89.574580
174 4.188000 0.997924 90.394420
175 4.212000 0.995799 91.238720
176 4.236000 0.992887 92.011620
177 4.260000 0.993298 93.095740
178 4.284000 0.989260 93.764920
179 4.308000 0.989983 94.887740
180 4.332000 0.987340 95.691720
181 4.356000 0.983489 96.377560
182 4.380000 0.983312 97.425000
183 4.404000 0.982779 98.442240
184 4.428000 0.981011 99.339040
185 4.452000 0.979402 100.254080
186 4.476000 0.977390 101.129780
187 4.500000 0.979474 102.435060
188 4.524000 0.975985 103.161920
189 4.548000 0.977924 104.466440
190 4.572000 0.973714 105.117440
191 4.596000 0.974177 106.274420
192 4.620000 0.974973 107.474960
193 4.644000 0.973693 108.451960
194 4.668000 0.975425 109.770720
195 4.692000 0.975899 110.956260
196 4.716000 0.978132 112.350700
197 4.740000 0.977680 113.444700
198 4.764000 0.980884 114.971960
199 4.788000 0.980030 116.032220
200 4.812000 0.983158 117.572400
201 4.836000 0.981928 118.599540
202 4.860000 0.984363 120.076680
203 4.884000 0.985275 121.377880
204 4.908000 0.985559 122.609060
205 4.932000 0.986949 123.985760
206 4.956000 0.988622 125.407580
207 4.980000 0.991383 126.978740
208 5.004000 0.991463 128.215960
209 5.028000 0.992086 129.530160
210 5.052000 0.992820 130.866360
211 5.076000 0.992785 132.108020
212 5.100000 0.996257 133.826620
213 5.124000 0.994513 134.852660
214 5.148000 0.996806 136.432680
215 5.172000 0.995670 137.550800
216 5.196000 0.997015 139.017960
217 5.220000 0.998114 140.459840
218 5.244000 0.996944 141.588160
219 5.268000 0.995540 142.685880
220 5.292000 0.997124 144.218040
221 5.316000 0.997990 145.655500
222 5.340000 0.995594 146.620780
223 5.364000 0.996045 148.008800
224 5.388000 0.996999 149.479140
225 5.412000 0.994221 150.393580
226 5.436000 0.992387 151.450540
227 5.460000 0.992082 152.743880
228 5.484000 0.992264 154.117900
229 5.508000 0.990343 155.168860
230 5.532000 0.991278 156.671740
231 5.556000 0.988902 157.655360
232 5.580000 0.985877 158.533880
233 5.604000 0.984799 159.725660
234 5.628000 0.984057 160.975400
235 5.652000 0.982196 162.044120
236 5.676000 0.982173 163.419480
237 5.700000 0.980156 164.465860
238 5.724000 0.979540 165.749600
239 5.748000 0.978544 166.972360
240 5.772000 0.978887 168.428720
241 5.796000 0.976436 169.407000
242 5.820000 0.976176 170.767440
243 5.844000 0.974489 171.881100
244 5.868000 0.975202 173.422580
245 5.892000 0.974309 174.684060
246 5.916000 0.973281 175.924180
247 5.940000 0.974569 177.589200
248 5.964000 0.974005 178.923540
249 5.988000 0.972018 179.998440
250 6.012000 0.969462 180.967160
251 6.036000 0.969704 182.460300
252 6.060000 0.972224 184.392240
253 6.084000 0.972017 185.815960
254 6.108000 0.972886 187.452440
255 6.132000 0.971710 188.700000
256 6.156000 0.973000 190.432460
257 6.180000 0.974104 192.138040
258 6.204000 0.973995 193.611580
259 6.228000 0.975368 195.387440
260 6.252000 0.978096 197.446980
261 6.276000 0.977119 198.766940
262 6.300000 0.979938 200.867960
263 6.324000 0.979907 202.394840
264 6.348000 0.981156 204.193960
265 6.372000 0.981496 205.812180
266 6.396000 0.983476 207.783780
267 6.420000 0.985629 209.804380
268 6.444000 0.985318 211.309120
269 6.468000 0.986503 213.142040
270 6.492000 0.987846 215.019100
271 6.516000 0.989573 216.990460
272 6.540000 0.992805 219.306000
273 6.564000 0.993197 221.005560
274 6.588000 0.995806 223.209580
275 6.612000 0.996789 225.060780
276 6.636000 0.999184 227.242200
277 6.660000 0.999549 228.972660
278 6.684000 1.001463 231.067280
279 6.708000 1.003549 233.214560
280 6.732000 1.004755 235.168460
281 6.756000 1.005175 236.947360
282 6.780000 1.005191 238.637580
283 6.804000 1.007474 240.875800
284 6.828000 1.010367 243.274720
285 6.852000 1.010156 244.936780
286 6.876000 1.013269 247.415740
287 6.900000 1.014307 249.401060
288 6.924000 1.014766 251.252680
289 6.948000 1.015439 253.165280
290 6.972000 1.016109 255.085560
291 6.996000 1.018289 257.395720
292 7.020000 1.019402 259.448220
293 7.044000 1.017761 260.804740
294 7.068000 1.019042 262.915520
295 7.092000 1.020015 264.956640
296 7.116000 1.021068 267.028300
297 7.140000 1.020161 268.593940
298 7.164000 1.021659 270.799560
299 7.188000 1.022255 272.776160
300 7.212000 1.022546 274.678820
301 7.236000 1.022606 276.526260
302 7.260000 1.023037 278.481060
303 7.284000 1.021132 279.803160
304 7.308000 1.021509 281.754080
305 7.332000 1.020934 283.448040
306 7.356000 1.021843 285.560840
307 7.380000 1.021653 287.373800
308 7.404000 1.020597 288.946780
309 7.428000 1.021364 291.041740
310 7.452000 1.020728 292.743040
311 7.476000 1.018491 293.985880
312 7.500000 1.020999 296.605160
313 7.524000 1.019012 297.925480
314 7.548000 1.018405 299.650680
315 7.572000 1.015853 300.803600
316 7.596000 1.016078 302.780340
317 7.620000 1.015222 304.440160
318 7.644000 1.013299 305.780400
319 7.668000 1.013742 307.838080
320 7.692000 1.011648 309.128480
321 7.716000 1.010866 310.819840
322 7.740000 1.009780 312.420660
323 7.764000 1.010365 314.543160
324 7.788000 1.008093 315.779060
325 7.812000 1.007264 317.467060
326 7.836000 1.006225 319.091160
327 7.860000 1.004183 320.397400
328 7.884000 1.003677 322.194600
329 7.908000 1.002294 323.712460
330 7.932000 1.001632 325.465240
331 7.956000 1.001608 327.429720
332 7.980000 1.000990 329.204860
333 8.004000 1.000184 330.921400
334 8.028000 0.999218 332.587600
335 8.052000 0.997765 334.092600
336 8.076000 0.997146 335.878540
337 8.100000 0.997033 337.839480
338 8.124000 0.996219 339.567060
339 8.148000 0.996241 341.583780
340 8.172000 0.994962 343.157820
341 8.196000 0.994619 345.057380
342 8.220000 0.994787 347.140080
343 8.244000 0.993050 348.560440
344 8.268000 0.993448 350.733400
345 8.292000 0.992992 352.610420
346 8.316000 0.992704 354.551600
347 8.340000 0.992592 356.560920
348 8.364000 0.992199 358.474160
349 8.388000 0.991870 360.414740
350 8.412000 0.992492 362.707260
351 8.436000 0.991577 364.443640
352 8.460000 0.991532 366.503700
353 8.484000 0.991197 368.461500
354 8.508000 0.992438 371.013100
355 8.532000 0.990849 372.511680
356 8.556000 0.991020 374.675280
357 8.580000 0.990668 376.646300
358 8.604000 0.992106 379.305900
359 8.628000 0.992170 381.449700
360 8.652000 0.992986 383.890320
361 8.676000 0.992708 385.914740
362 8.700000 0.992624 388.019860
363 8.724000 0.992301 390.036680
364 8.748000 0.993615 392.705080
365 8.772000 0.992349 394.359600
366 8.796000 0.994120 397.228320
367 8.820000 0.992415 398.714060
368 8.844000 0.992665 400.987540
369 8.868000 0.993748 403.606660
370 8.892000 0.993574 405.723500
371 8.916000 0.994395 408.253600
372 8.940000 0.994414 410.462160
373 8.964000 0.994395 412.661220
374 8.988000 0.993960 414.692380
375 9.012000 0.993898 416.883820
376 9.036000 0.995522 419.791940
377 9.060000 0.995334 421.945300
378 9.084000 0.995055 424.064680
379 9.108000 0.995197 426.369240
380 9.132000 0.995843 428.897720
381 9.156000 0.995429 430.975840
382 9.180000 0.995251 433.160480
383 9.204000 0.995214 435.412200
384 9.228000 0.996481 438.242960
385 9.252000 0.996247 440.421980
386 9.276000 0.996241 442.707440
387 9.300000 0.996450 445.094580
388 9.324000 0.997326 447.788140
389 9.348000 0.996762 449.841600
390 9.372000 0.997216 452.360380
391 9.396000 0.996601 454.399960
392 9.420000 0.998327 457.515300
393 9.444000 0.998435 459.899240
394 9.468000 0.999308 462.644000
395 9.492000 0.999238 464.959580
396 9.516000 0.998658 467.042580
397 9.540000 0.998998 469.561320
398 9.564000 0.999966 472.384040
399 9.588000 0.999565 474.567400
400 9.612000 1.000292 477.293360
401 9.636000 1.000549 479.802920
402 9.660000 0.999152 481.522620
403 9.684000 1.000689 484.662480
404 9.708000 1.000454 486.953680
405 9.732000 0.999909 489.097480
406 9.756000 0.999236 491.181980
407 9.780000 1.000417 494.184920
408 9.804000 1.000774 496.790800
409 9.828000 1.000298 498.988360
410 9.852000 1.001451 502.006780
411 9.876000 1.001742 504.601980
412 9.900000 1.000424 506.390260
413 9.924000 1.001953 509.626000
414 9.948000 1.000900 511.555700
415 9.972000 1.001087 514.123280
416 9.996000 1.002036 517.090700
417 10.020000 1.001914 519.513320
418 10.044000 1.001724 521.906280
419 10.068000 1.000450 523.736160
420 10.092000 1.000629 526.330220
421 10.116000 1.001287 529.184500
422 10.140000 1.001287 531.698520
423 10.164000 1.001018 534.074600
424 10.188000 0.999955 536.029940
425 10.212000 1.001193 539.225420
426 10.236000 1.000774 541.536360
427 10.260000 1.001804 544.638460
428 10.284000 1.001620 547.088960
429 10.308000 1.002027 549.869080
430 10.332000 1.001270 552.014780
431 10.356000 1.001513 554.717140
432 10.380000 1.001894 557.503040
433 10.404000 1.001680 559.964520
434 10.428000 1.001741 562.585180
435 10.452000 1.002449 565.577500
436 10.476000 1.002080 567.968420
437 10.500000 1.001363 570.165500
438 10.524000 1.002100 573.196460
439 10.548000 1.001769 575.623680
440 10.572000 1.001149 577.888240
441 10.596000 1.002124 581.080260
442 10.620000 1.000870 582.985380
443 10.644000 1.001816 586.176720
444 10.668000 1.001637 588.718120
445 10.692000 1.001831 591.484300
446 10.716000 1.001135 593.729800
447 10.740000 1.001974 596.891960
448 10.764000 1.002045 599.605420
449 10.788000 1.001848 602.163860
450 10.812000 1.002551 605.270320
451 10.836000 1.002482 607.918840
452 10.860000 1.002457 610.599220
453 10.884000 1.002280 613.192980
454 10.908000 1.001735 615.565040
455 10.932000 1.001902 618.379740
456 10.956000 1.001514 620.857700
457 10.980000 1.002769 624.362160
458 11.004000 1.002901 627.177060
459 11.028000 1.002303 629.540160
460 11.052000 1.004109 633.422800
461 11.076000 1.003348 635.694160
462 11.100000 1.002623 637.991000
463 11.124000 1.003497 641.311620
464 11.148000 1.002772 643.616540
465 11.172000 1.002774 646.391580
466 11.196000 1.002738 649.148300
467 11.220000 1.001746 651.289940
468 11.244000 1.002095 654.306700
469 11.268000 1.003217 657.838560
470 11.292000 1.002117 659.919900
471 11.316000 1.001267 662.165920
472 11.340000 1.002013 665.472560
473 11.364000 1.001771 668.131340
474 11.388000 1.001499 670.774280
475 11.412000 1.001534 673.627700
476 11.436000 1.000302 675.632380
477 11.460000 1.000478 678.590580
478 11.484000 1.001550 682.165600
479 11.508000 1.001105 684.715400
480 11.532000 1.000896 687.431060
481 11.556000 1.000134 689.769860
482 11.580000 0.999789 692.399100
483 11.604000 0.999048 694.756420
484 11.628000 0.999037 697.626040
485 11.652000 0.999344 700.723440
486 11.676000 0.998502 703.020480
487 11.700000 0.999042 706.295380
488 11.724000 0.998959 709.136820
489 11.748000 0.998723 711.874760
490 11.772000 0.999890 715.621700
491 11.796000 0.999533 718.286260
492 11.820000 0.999594 721.255760
493 11.844000 0.998933 723.709320
494 11.868000 0.998700 726.475640
495 11.892000 0.998741 729.447020
496 11.916000 0.998829 732.458540
497 11.940000 0.998506 735.174220
498 11.964000 0.998826 738.369100
499 11.988000 0.999304 741.689540
