# column 1: index
# column 2: distance [A]
# column 3: RDF histogram
# column 4: unnormalized distance histogram
0 0.012000 0.000000 0.000000
1 0.036000 0.000000 0.000000
2 0.060000 0.000000 0.000000
3 0.084000 0.000000 0.000000
4 0.108000 0.000000 0.000000
5 0.132000 0.000000 0.000000
6 0.156000 0.000000 0.000000
7 0.180000 0.000000 0.000000
8 0.204000 0.000000 0.000000
9 0.228000 0.000000 0.000000
10 0.252000 0.000000 0.000000
11 0.276000 0.000000 0.000000
12 0.300000 0.000000 0.000000
13 0.324000 0.000000 0.000000
14 0.348000 0.000000 0.000000
15 0.372000 0.000000 0.000000
16 0.396000 0.000000 0.000000
17 0.420000 0.000000 0.000000
18 0.444000 0.000000 0.000000
19 0.468000 0.000000 0.000000
20 0.492000 0.000000 0.000000
21 0.516000 0.000000 0.000000
22 0.540000 0.000000 0.000000
23 0.564000 0.000000 0.000000
24 0.588000 0.000000 0.000000
25 0.612000 0.000000 0.000000
26 0.636000 0.000000 0.000000
27 0.660000 0.000000 0.000000
28 0.684000 0.000000 0.000000
29 0.708000 0.000000 0.000000
30 0.732000 0.000000 0.000000
31 0.756000 0.000000 0.000000
32 0.780000 0.000000 0.000000
33 0.804000 0.000000 0.000000
34 0.828000 0.000000 0.000000
35 0.852000 0.000000 0.000000
36 0.876000 0.000000 0.000000
37 0.900000 0.000000 0.000000
38 0.924000 0.000000 0.000000
39 0.948000 0.000000 0.000000
40 0.972000 0.000000 0.000000
41 0.996000 0.000000 0.000000
42 1.020000 0.000000 0.000000
43 1.044000 0.000000 0.000000
44 1.068000 0.000000 0.000000
45 1.092000 0.000000 0.000000
46 1.116000 0.000000 0.000000
47 1.140000 0.000000 0.000000
48 1.164000 0.000000 0.000000
49 1.188000 0.000000 0.000000
50 1.212000 0.000000 0.000000
51 1.236000 0.000000 0.000000
52 1.260000 0.000000 0.000000
53 1.284000 0.000000 0.000000
54 1.308000 0.000000 0.000000
55 1.332000 0.000000 0.000000
56 1.356000 0.000000 0.000000
57 1.380000 0.000000 0.000000
58 1.404000 0.000029 0.000292
59 1.428000 0.000075 0.000792
60 1.452000 0.000855 0.009312
61 1.476000 0.003698 0.041602
62 1.500000 0.010927 0.126974
63 1.524000 0.029556 0.354527
64 1.548000 0.069489 0.859985
65 1.572000 0.136950 1.747823
66 1.596000 0.237946 3.130224
67 1.620000 0.377294 5.113766
68 1.644000 0.537084 7.496813
69 1.668000 0.717429 10.308654
70 1.692000 0.892073 13.189617
71 1.716000 1.048980 15.952648
72 1.740000 1.165457 18.223241
73 1.764000 1.251944 20.119308
74 1.788000 1.298526 21.439586
75 1.812000 1.313848 22.278822
76 1.836000 1.286750 22.401150
77 1.860000 1.241769 22.186951
78 1.884000 1.183292 21.691242
79 1.908000 1.109646 20.862777
80 1.932000 1.031975 19.893650
81 1.956000 0.955116 18.872297
82 1.980000 0.868962 17.593892
83 2.004000 0.784783 16.277051
84 2.028000 0.716069 15.209741
85 2.052000 0.653429 14.209679
86 2.076000 0.589091 13.111975
87 2.100000 0.535375 12.193471
88 2.124000 0.489374 11.402004
89 2.148000 0.448708 10.692096
90 2.172000 0.408997 9.964856
91 2.196000 0.373633 9.305529
92 2.220000 0.349195 8.888005
93 2.244000 0.326612 8.493938
94 2.268000 0.305279 8.109870
95 2.292000 0.288278 7.821174
96 2.316000 0.273787 7.584392
97 2.340000 0.264957 7.492688
98 2.364000 0.255032 7.360714
99 2.388000 0.250950 7.390734
100 2.412000 0.250257 7.519208
101 2.436000 0.249242 7.638473
102 2.460000 0.250219 7.820257
103 2.484000 0.253561 8.080101
104 2.508000 0.259658 8.435065
105 2.532000 0.266555 8.825611
106 2.556000 0.277383 9.359068
107 2.580000 0.293550 10.091413
108 2.604000 0.310402 10.870193
109 2.628000 0.331195 11.813133
110 2.652000 0.354887 12.890463
111 2.676000 0.383413 14.179805
112 2.700000 0.417997 15.737344
113 2.724000 0.454129 17.403004
114 2.748000 0.497996 19.421837
115 2.772000 0.544893 21.623620
116 2.796000 0.602830 24.338861
117 2.820000 0.665541 27.334028
118 2.844000 0.731345 30.550081
119 2.868000 0.803058 34.114266
120 2.892000 0.879903 38.006896
121 2.916000 0.959383 42.130640
122 2.940000 1.037182 46.299946
123 2.964000 1.117883 50.720532
124 2.988000 1.196387 55.165014
125 3.012000 1.266015 59.317070
126 3.036000 1.332874 63.448835
127 3.060000 1.393104 67.368547
128 3.084000 1.443428 70.901400
129 3.108000 1.486445 74.155202
130 3.132000 1.518771 76.942544
131 3.156000 1.537540 79.091767
132 3.180000 1.546921 80.789175
133 3.204000 1.549430 82.146265
134 3.228000 1.545207 83.154264
135 3.252000 1.535707 83.876484
136 3.276000 1.514978 83.970168
137 3.300000 1.492369 83.933440
138 3.324000 1.464248 83.554081
139 3.348000 1.429453 82.750719
140 3.372000 1.400681 82.251760
141 3.396000 1.371613 81.695471
142 3.420000 1.335136 80.650765
143 3.444000 1.300052 79.637578
144 3.468000 1.269986 78.883838
145 3.492000 1.244715 78.387963
146 3.516000 1.215057 77.575643
147 3.540000 1.186837 76.811883
148 3.564000 1.161196 76.174868
149 3.588000 1.137951 75.658764
150 3.612000 1.120178 75.476772
151 3.636000 1.104457 75.409712
152 3.660000 1.089118 75.347381
153 3.684000 1.077786 75.544456
154 3.708000 1.063758 75.535832
155 3.732000 1.056718 76.010416
156 3.756000 1.046726 76.263239
157 3.780000 1.039795 76.729490
158 3.804000 1.033275 77.219637
159 3.828000 1.027022 77.723887
160 3.852000 1.024555 78.512499
161 3.876000 1.022493 79.333861
162 3.900000 1.019722 80.101725
163 3.924000 1.015128 80.725303
164 3.948000 1.012515 81.505479
165 3.972000 1.011051 82.380151
166 3.996000 1.008426 83.162202
167 4.020000 1.007608 84.095850
168 4.044000 1.006409 85.001687
169 4.068000 1.002909 85.714533
170 4.092000 0.999857 86.464960
171 4.116000 1.000008 87.495375
172 4.140000 0.999240 88.450752
173 4.164000 0.995218 89.119078
174 4.188000 0.990895 89.757739
175 4.212000 0.988106 90.533853
176 4.236000 0.987046 91.470293
177 4.260000 0.982853 92.116766
178 4.284000 0.980723 92.955710
179 4.308000 0.979011 93.836048
180 4.332000 0.977603 94.748073
181 4.356000 0.974457 95.492479
182 4.380000 0.971596 96.264239
183 4.404000 0.970449 97.207137
184 4.428000 0.971015 98.326799
185 4.452000 0.970644 99.357589
186 4.476000 0.968903 100.251615
187 4.500000 0.967130 101.144161
188 4.524000 0.967814 102.298238
189 4.548000 0.967308 103.332444
190 4.572000 0.968264 104.529061
191 4.596000 0.965400 105.316966
192 4.620000 0.967351 106.634765
193 4.644000 0.968393 107.861631
194 4.668000 0.969770 109.134328
195 4.692000 0.970748 110.370547
196 4.716000 0.970973 111.528415
197 4.740000 0.973571 112.967876
198 4.764000 0.975315 114.319216
199 4.788000 0.975851 115.537457
200 4.812000 0.978091 116.966439
201 4.836000 0.979112 118.259489
202 4.860000 0.981030 119.670055
203 4.884000 0.981468 120.908858
204 4.908000 0.984687 122.500625
205 4.932000 0.984868 123.724324
206 4.956000 0.986110 125.088913
207 4.980000 0.988951 126.667264
208 5.004000 0.989366 127.944731
209 5.028000 0.992081 129.529457
210 5.052000 0.993662 130.977355
211 5.076000 0.996185 132.560456
212 5.100000 0.997271 133.962918
213 5.124000 0.996835 135.167576
214 5.148000 0.997963 136.591163
215 5.172000 0.998130 137.890713
216 5.196000 0.998385 139.208991
217 5.220000 0.997490 140.371964
218 5.244000 0.997847 141.716366
219 5.268000 1.000426 143.386171
220 5.292000 1.001270 144.817758
221 5.316000 1.000387 146.005437
222 5.340000 1.000765 147.382380
223 5.364000 1.000483 148.668264
224 5.388000 1.000996 150.078476
225 5.412000 0.999978 151.264447
226 5.436000 0.998946 152.451585
227 5.460000 0.999031 153.813695
228 5.484000 0.998112 155.026228
229 5.508000 0.996610 156.150660
230 5.532000 0.994426 157.169347
231 5.556000 0.992456 158.221949
232 5.580000 0.992256 159.559664
233 5.604000 0.991344 160.787280
234 5.628000 0.990210 161.981855
235 5.652000 0.988324 163.055102
236 5.676000 0.988484 164.469397
237 5.700000 0.986899 165.597267
238 5.724000 0.986977 167.007937
239 5.748000 0.983859 167.879338
240 5.772000 0.983919 169.294467
241 5.796000 0.982580 170.472939
242 5.820000 0.981689 171.731803
243 5.844000 0.980236 172.894879
244 5.868000 0.977788 173.882463
245 5.892000 0.977612 175.276218
246 5.916000 0.977785 176.738261
247 5.940000 0.976362 177.915795
248 5.964000 0.976301 179.345277
249 5.988000 0.974634 180.482792
250 6.012000 0.975846 182.158723
251 6.036000 0.976507 183.740344
252 6.060000 0.977124 185.321549
253 6.084000 0.976092 186.595079
254 6.108000 0.977229 188.289050
255 6.132000 0.977466 189.817737
256 6.156000 0.978454 191.499833
257 6.180000 0.977902 192.887130
258 6.204000 0.977412 194.290800
259 6.228000 0.978208 195.956314
260 6.252000 0.979368 197.703700
261 6.276000 0.980593 199.473730
262 6.300000 0.982710 201.436023
263 6.324000 0.982439 202.917920
264 6.348000 0.983527 204.687409
265 6.372000 0.986343 206.828549
266 6.396000 0.986752 208.475834
267 6.420000 0.988780 210.474959
268 6.444000 0.989203 212.142327
269 6.468000 0.989755 213.844736
270 6.492000 0.990902 215.684242
271 6.516000 0.992131 217.551581
272 6.540000 0.994065 219.584142
273 6.564000 0.994358 221.263989
274 6.588000 0.997261 223.535644
275 6.612000 0.998389 225.422087
276 6.636000 0.999809 227.384463
277 6.660000 1.001431 229.403671
278 6.684000 1.003418 231.518583
279 6.708000 1.003715 233.253010
280 6.732000 1.005533 235.350631
281 6.756000 1.007013 237.380651
282 6.780000 1.007388 239.159202
283 6.804000 1.009145 241.275364
284 6.828000 1.009405 243.043040
285 6.852000 1.011038 245.150765
286 6.876000 1.013793 247.543811
287 6.900000 1.014492 249.446669
288 6.924000 1.016045 251.569539
289 6.948000 1.017017 253.558748
290 6.972000 1.018145 255.596600
291 6.996000 1.018397 257.423128
292 7.020000 1.018814 259.298592
293 7.044000 1.020072 261.396775
294 7.068000 1.020729 263.350673
295 7.092000 1.021855 265.434711
296 7.116000 1.020774 266.951398
297 7.140000 1.021714 269.002771
298 7.164000 1.021894 270.861756
299 7.188000 1.023259 273.043852
300 7.212000 1.022658 274.708825
301 7.236000 1.021422 276.205950
302 7.260000 1.022733 278.398296
303 7.284000 1.021753 279.973459
304 7.308000 1.021520 281.757114
305 7.332000 1.021739 283.671493
306 7.356000 1.019686 284.958023
307 7.380000 1.019475 286.760989
308 7.404000 1.020103 288.807008
309 7.428000 1.020000 290.652931
310 7.452000 1.019339 292.344673
311 7.476000 1.016533 293.420899
312 7.500000 1.015832 295.104266
313 7.524000 1.014754 296.680659
314 7.548000 1.014121 298.390234
315 7.572000 1.012876 299.922066
316 7.596000 1.010777 301.200929
317 7.620000 1.011172 303.225595
318 7.644000 1.009990 304.781926
319 7.668000 1.009773 306.632994
320 7.692000 1.007286 307.795509
321 7.716000 1.006684 309.534103
322 7.740000 1.005413 311.069351
323 7.764000 1.004074 312.584496
324 7.788000 1.004203 314.560643
325 7.812000 1.004177 316.494167
326 7.836000 1.002474 317.901754
327 7.860000 1.001143 319.427336
328 7.884000 0.999630 320.895275
329 7.908000 0.998712 322.555581
330 7.932000 0.999505 324.774051
331 7.956000 0.998694 326.477251
332 7.980000 0.998797 328.483834
333 8.004000 0.998541 330.377922
334 8.028000 0.996253 331.600454
335 8.052000 0.995333 333.278280
336 8.076000 0.993930 334.795363
337 8.100000 0.992609 336.340340
338 8.124000 0.992738 338.380672
339 8.148000 0.993366 340.597975
340 8.172000 0.993245 342.565726
341 8.196000 0.991696 344.043540
342 8.220000 0.991015 345.823549
343 8.244000 0.990808 347.773530
344 8.268000 0.990028 349.525853
345 8.292000 0.989713 351.445981
346 8.316000 0.988621 353.093454
347 8.340000 0.988166 354.971147
348 8.364000 0.988292 357.062643
349 8.388000 0.987948 358.989584
350 8.412000 0.987992 361.062852
351 8.436000 0.987813 363.060352
352 8.460000 0.988251 365.290842
353 8.484000 0.989342 367.771801
354 8.508000 0.990360 370.236282
355 8.532000 0.990408 372.346027
356 8.556000 0.989967 374.276905
357 8.580000 0.990666 376.645411
358 8.604000 0.991141 378.937190
359 8.628000 0.990268 380.718387
360 8.652000 0.991613 383.359506
361 8.676000 0.991917 385.607475
362 8.700000 0.991043 387.402087
363 8.724000 0.991292 389.640265
364 8.748000 0.991299 391.789821
365 8.772000 0.991624 394.071622
366 8.796000 0.991565 396.207325
367 8.820000 0.991947 398.525895
368 8.844000 0.992379 400.872047
369 8.868000 0.992824 403.231699
370 8.892000 0.992234 405.176263
371 8.916000 0.992011 407.274759
372 8.940000 0.992713 409.760197
373 8.964000 0.993269 412.193825
374 8.988000 0.994924 415.094621
375 9.012000 0.994888 417.299279
376 9.036000 0.995144 419.632474
377 9.060000 0.995149 421.866631
378 9.084000 0.996358 424.620120
379 9.108000 0.997054 427.164951
380 9.132000 0.996824 429.319862
381 9.156000 0.996822 431.578747
382 9.180000 0.996910 433.882380
383 9.204000 0.997087 436.231636
384 9.228000 0.998613 439.180617
385 9.252000 0.998397 441.372443
386 9.276000 0.999546 444.176097
387 9.300000 1.000267 446.799571
388 9.324000 1.000733 449.317841
389 9.348000 1.000530 451.542144
390 9.372000 1.001050 454.099642
391 9.396000 1.000812 456.319966
392 9.420000 1.000161 458.355527
393 9.444000 1.000513 460.856256
394 9.468000 1.002221 463.992604
395 9.492000 1.002630 466.537936
396 9.516000 1.002668 468.918212
397 9.540000 1.003336 471.600017
398 9.564000 1.003346 473.980605
399 9.588000 1.003721 476.540727
400 9.612000 1.002997 478.583892
401 9.636000 1.002449 480.714137
402 9.660000 1.002785 483.273447
403 9.684000 1.003093 485.826861
404 9.708000 1.003278 488.328090
405 9.732000 1.003665 490.934815
406 9.756000 1.003922 493.485459
407 9.780000 1.004476 496.190200
408 9.804000 1.004757 498.768072
409 9.828000 1.005024 501.346069
410 9.852000 1.004727 503.648785
411 9.876000 1.004377 505.929190
412 9.900000 1.004527 508.466981
413 9.924000 1.005276 511.316424
414 9.948000 1.004212 513.248823
415 9.972000 1.005186 516.228136
416 9.996000 1.004944 518.591142
417 10.020000 1.004970 521.098163
418 10.044000 1.003259 522.706033
419 10.068000 1.001703 524.392400
420 10.092000 1.002102 527.104975
421 10.116000 1.002422 529.784342
422 10.140000 1.001420 531.769239
423 10.164000 1.001351 534.252594
424 10.188000 1.001649 536.938190
425 10.212000 1.000896 539.065518
426 10.236000 1.001111 541.718491
427 10.260000 1.001938 544.711366
428 10.284000 1.001132 546.822674
429 10.308000 1.001015 549.313716
430 10.332000 1.000812 551.762427
431 10.356000 1.000501 554.156368
432 10.380000 1.001434 557.247198
433 10.404000 1.001055 559.615412
434 10.428000 1.001546 562.475584
435 10.452000 1.000824 564.660452
436 10.476000 0.999506 566.509416
437 10.500000 0.999881 569.321924
438 10.524000 0.999784 571.871714
439 10.548000 1.000319 574.790759
440 10.572000 1.000370 577.438794
441 10.596000 1.000598 580.195638
442 10.620000 1.000057 582.511645
443 10.644000 0.999875 585.041227
444 10.668000 1.001192 588.456064
445 10.692000 0.999878 590.331090
446 10.716000 1.000264 593.213616
447 10.740000 0.999948 595.685242
448 10.764000 1.000019 598.393088
449 10.788000 0.999937 601.015041
450 10.812000 1.001038 604.357027
451 10.836000 1.000926 606.975334
452 10.860000 1.000656 609.502208
453 10.884000 1.000305 611.984563
454 10.908000 1.000940 615.076747
455 10.932000 1.001589 618.186451
456 10.956000 1.000879 620.464064
457 10.980000 1.000345 622.852569
458 11.004000 1.000834 625.884463
459 11.028000 1.001217 628.857902
460 11.052000 1.001089 631.517603
461 11.076000 1.000585 633.944044
462 11.100000 1.000434 636.598246
463 11.124000 1.000494 639.392275
464 11.148000 1.000858 642.387963
465 11.172000 0.999913 644.547644
466 11.196000 0.999874 647.294717
467 11.220000 0.998759 649.347986
468 11.244000 0.999122 652.365693
469 11.268000 0.998110 654.490021
470 11.292000 0.998727 657.687055
471 11.316000 0.999508 661.002479
472 11.340000 1.000840 664.693575
473 11.364000 1.000363 667.191846
474 11.388000 1.000706 670.242927
475 11.412000 1.000374 672.847736
476 11.436000 0.999580 675.144577
477 11.460000 0.999379 677.845194
478 11.484000 0.999586 680.827674
479 11.508000 0.999412 683.557310
480 11.532000 0.998874 686.042457
481 11.556000 0.999659 689.442044
482 11.580000 0.999040 691.880442
483 11.604000 0.999059 694.764447
484 11.628000 0.998903 697.532499
485 11.652000 0.998834 700.366401
486 11.676000 0.999172 703.491938
487 11.700000 0.999692 706.755219
488 11.724000 0.999824 709.750927
489 11.748000 0.999563 712.473918
490 11.772000 0.999676 715.468876
491 11.796000 1.000255 718.804800
492 11.820000 1.000139 721.649056
493 11.844000 0.999272 723.954377
494 11.868000 0.999243 726.870526
495 11.892000 0.999622 730.090267
496 11.916000 0.999061 732.628703
497 11.940000 0.998724 735.334653
498 11.964000 0.998812 738.359027
499 11.988000 0.999284 741.674180
