# column 1: index
# column 2: distance [A]
# column 3: RDF histogram
# column 4: unnormalized distance histogram
0 0.012000 0.000000 0.000000
1 0.036000 0.000000 0.000000
2 0.060000 0.000000 0.000000
3 0.084000 0.000000 0.000000
4 0.108000 0.000000 0.000000
5 0.132000 0.000000 0.000000
6 0.156000 0.000000 0.000000
7 0.180000 0.000000 0.000000
8 0.204000 0.000000 0.000000
9 0.228000 0.000000 0.000000
10 0.252000 0.000000 0.000000
11 0.276000 0.000000 0.000000
12 0.300000 0.000000 0.000000
13 0.324000 0.000000 0.000000
14 0.348000 0.000000 0.000000
15 0.372000 0.000000 0.000000
16 0.396000 0.000000 0.000000
17 0.420000 0.000000 0.000000
18 0.444000 0.000000 0.000000
19 0.468000 0.000000 0.000000
20 0.492000 0.000000 0.000000
21 0.516000 0.000000 0.000000
22 0.540000 0.000000 0.000000
23 0.564000 0.000000 0.000000
24 0.588000 0.000000 0.000000
25 0.612000 0.000000 0.000000
26 0.636000 0.000000 0.000000
27 0.660000 0.000000 0.000000
28 0.684000 0.000000 0.000000
29 0.708000 0.000000 0.000000
30 0.732000 0.000000 0.000000
31 0.756000 0.000000 0.000000
32 0.780000 0.000000 0.000000
33 0.804000 0.000000 0.000000
34 0.828000 0.000000 0.000000
35 0.852000 0.000000 0.000000
36 0.876000 0.000000 0.000000
37 0.900000 0.000000 0.000000
38 0.924000 0.000000 0.000000
39 0.948000 0.000000 0.000000
40 0.972000 0.000000 0.000000
41 0.996000 0.000000 0.000000
42 1.020000 0.000000 0.000000
43 1.044000 0.000000 0.000000
44 1.068000 0.000000 0.000000
45 1.092000 0.000000 0.000000
46 1.116000 0.000000 0.000000
47 1.140000 0.000000 0.000000
48 1.164000 0.000000 0.000000
49 1.188000 0.000000 0.000000
50 1.212000 0.000000 0.000000
51 1.236000 0.000000 0.000000
52 1.260000 0.000000 0.000000
53 1.284000 0.000015 0.000250
54 1.308000 0.000028 0.000500
55 1.332000 0.000030 0.000542
56 1.356000 0.000162 0.003083
57 1.380000 0.000182 0.003583
58 1.404000 0.000264 0.005375
59 1.428000 0.000364 0.007666
60 1.452000 0.000611 0.013291
61 1.476000 0.000806 0.018124
62 1.500000 0.001296 0.030082
63 1.524000 0.001688 0.040457
64 1.548000 0.002617 0.064706
65 1.572000 0.003765 0.095996
66 1.596000 0.004833 0.127036
67 1.620000 0.006919 0.187367
68 1.644000 0.008878 0.247615
69 1.668000 0.012431 0.356902
70 1.692000 0.016180 0.477980
71 1.716000 0.021238 0.645348
72 1.740000 0.027619 0.862881
73 1.764000 0.034917 1.121162
74 1.788000 0.043932 1.449273
75 1.812000 0.056286 1.907004
76 1.836000 0.069632 2.422107
77 1.860000 0.086663 3.093829
78 1.884000 0.109018 3.992959
79 1.908000 0.135994 5.108745
80 1.932000 0.167860 6.465439
81 1.956000 0.206893 8.168076
82 1.980000 0.257152 10.402942
83 2.004000 0.316139 13.101162
84 2.028000 0.384596 16.322153
85 2.052000 0.464133 20.166660
86 2.076000 0.554841 24.675139
87 2.100000 0.654722 29.794217
88 2.124000 0.759402 35.352277
89 2.148000 0.873442 41.585226
90 2.172000 0.981349 47.772676
91 2.196000 1.090005 54.241240
92 2.220000 1.188818 60.458564
93 2.244000 1.275693 66.286988
94 2.268000 1.346472 71.469355
95 2.292000 1.400676 75.928253
96 2.316000 1.437938 79.589142
97 2.340000 1.463081 82.667847
98 2.364000 1.475453 85.085746
99 2.388000 1.463867 86.140411
100 2.412000 1.443887 86.681097
101 2.436000 1.409316 86.297738
102 2.460000 1.370888 85.606891
103 2.484000 1.323732 84.282988
104 2.508000 1.275311 82.776593
105 2.532000 1.227485 81.204533
106 2.556000 1.174904 79.206450
107 2.580000 1.127634 77.454023
108 2.604000 1.082707 75.758177
109 2.628000 1.036292 73.853214
110 2.652000 0.997816 72.415941
111 2.676000 0.960921 71.006250
112 2.700000 0.926877 69.724595
113 2.724000 0.896876 68.672514
114 2.748000 0.870626 67.842465
115 2.772000 0.845773 67.062081
116 2.796000 0.831128 67.046915
117 2.820000 0.813502 66.756510
118 2.844000 0.801958 66.934086
119 2.868000 0.790897 67.129703
120 2.892000 0.783618 67.629724
121 2.916000 0.780462 68.479897
122 2.940000 0.782108 69.758635
123 2.964000 0.784215 71.093246
124 2.988000 0.787556 72.556935
125 3.012000 0.791289 74.076705
126 3.036000 0.798032 75.903254
127 3.060000 0.804502 77.733219
128 3.084000 0.816610 80.145619
129 3.108000 0.827331 82.466606
130 3.132000 0.840802 85.108704
131 3.156000 0.852890 87.660389
132 3.180000 0.866827 90.453064
133 3.204000 0.878589 93.069455
134 3.228000 0.896564 96.401775
135 3.252000 0.910659 99.378693
136 3.276000 0.926591 102.615349
137 3.300000 0.941849 105.839048
138 3.324000 0.959358 109.380317
139 3.348000 0.979333 113.276030
140 3.372000 0.995553 116.808883
141 3.396000 1.009426 120.128620
142 3.420000 1.029355 124.237865
143 3.444000 1.045067 127.910754
144 3.468000 1.060129 131.568976
145 3.492000 1.079422 135.823882
146 3.516000 1.093328 139.471272
147 3.540000 1.106828 143.127578
148 3.564000 1.121790 147.035874
149 3.588000 1.131512 150.314362
150 3.612000 1.140095 153.487563
151 3.636000 1.147720 156.574268
152 3.660000 1.149223 158.855839
153 3.684000 1.149761 161.021291
154 3.708000 1.149525 163.092704
155 3.732000 1.142680 164.226949
156 3.756000 1.137319 165.565518
157 3.780000 1.128720 166.420316
158 3.804000 1.119334 167.138786
159 3.828000 1.110108 167.859381
160 3.852000 1.098996 168.269489
161 3.876000 1.089644 168.923003
162 3.900000 1.078494 169.271364
163 3.924000 1.068775 169.816799
164 3.948000 1.059327 170.380901
165 3.972000 1.050088 170.954627
166 3.996000 1.043282 171.905254
167 4.020000 1.037149 172.953710
168 4.044000 1.030660 173.929878
169 4.068000 1.027165 175.403692
170 4.092000 1.023085 176.774468
171 4.116000 1.021093 178.505812
172 4.140000 1.019239 180.265697
173 4.164000 1.018702 182.265697
174 4.188000 1.017575 184.168868
175 4.212000 1.016636 186.113954
176 4.236000 1.018001 188.493563
177 4.260000 1.019303 190.879422
178 4.284000 1.021019 193.361152
179 4.308000 1.020062 195.350569
180 4.332000 1.021680 197.846465
181 4.356000 1.024468 200.590600
182 4.380000 1.027332 203.374151
183 4.404000 1.030080 206.158827
184 4.428000 1.030735 208.544519
185 4.452000 1.031305 210.927836
186 4.476000 1.032057 213.363652
187 4.500000 1.033213 215.899463
188 4.524000 1.034034 218.381776
189 4.548000 1.032756 220.432315
190 4.572000 1.035076 223.265197
191 4.596000 1.033782 225.333361
192 4.620000 1.033305 227.587809
193 4.644000 1.031890 229.643557
194 4.668000 1.029035 231.381276
195 4.692000 1.028027 233.537644
196 4.716000 1.026100 235.490688
197 4.740000 1.024070 237.423149
198 4.764000 1.020608 239.022541
199 4.788000 1.018847 241.020291
200 4.812000 1.015043 242.533686
201 4.836000 1.013352 244.551019
202 4.860000 1.011522 246.538394
203 4.884000 1.008848 248.321195
204 4.908000 1.005179 249.855589
205 4.932000 1.004209 252.061664
206 4.956000 0.999367 253.293529
207 4.980000 0.997021 255.152244
208 5.004000 0.994878 257.063789
209 5.028000 0.993855 259.268697
210 5.052000 0.991318 261.081622
211 5.076000 0.987984 262.681597
212 5.100000 0.984971 264.362777
213 5.124000 0.981598 265.942919
214 5.148000 0.979388 267.835757
215 5.172000 0.977964 269.945627
216 5.196000 0.977073 272.208700
217 5.220000 0.976829 274.660556
218 5.244000 0.976889 277.208783
219 5.268000 0.974289 279.007416
220 5.292000 0.972616 281.072122
221 5.316000 0.973302 283.827216
222 5.340000 0.971850 285.968460
223 5.364000 0.971429 288.419858
224 5.388000 0.970256 290.655098
225 5.412000 0.969578 293.045456
226 5.436000 0.970008 295.781467
227 5.460000 0.971874 298.972876
228 5.484000 0.972366 301.759635
229 5.508000 0.974764 305.157368
230 5.532000 0.975236 307.971585
231 5.556000 0.974787 310.506479
232 5.580000 0.975820 313.526770
233 5.604000 0.977854 316.888588
234 5.628000 0.977844 319.605641
235 5.652000 0.979320 322.823882
236 5.676000 0.981454 326.280572
237 5.700000 0.982034 329.240282
238 5.724000 0.983100 332.378859
239 5.748000 0.984664 335.705096
240 5.772000 0.986081 339.001750
241 5.796000 0.985944 341.779134
242 5.820000 0.986293 344.737303
243 5.844000 0.987716 348.088163
244 5.868000 0.988983 351.403025
245 5.892000 0.988915 354.259156
246 5.916000 0.989415 357.331695
247 5.940000 0.989878 360.405400
248 5.964000 0.989762 363.280947
249 5.988000 0.990165 366.359860
250 6.012000 0.990016 369.246865
251 6.036000 0.990636 372.433649
252 6.060000 0.990622 375.395942
253 6.084000 0.991258 378.618474
254 6.108000 0.991139 381.565476
255 6.132000 0.991939 384.880463
256 6.156000 0.991716 387.811758
257 6.180000 0.992716 391.235740
258 6.204000 0.992559 394.218033
259 6.228000 0.993757 397.753635
260 6.252000 0.993797 400.840923
261 6.276000 0.993527 403.814716
262 6.300000 0.992979 406.684555
263 6.324000 0.994131 410.264364
264 6.348000 0.995036 413.760552
265 6.372000 0.994686 416.748594
266 6.396000 0.995828 420.375734
267 6.420000 0.996018 423.617183
268 6.444000 0.996005 426.785051
269 6.468000 0.998775 431.165785
270 6.492000 0.997533 433.831340
271 6.516000 0.997999 437.248990
272 6.540000 0.998589 440.736386
273 6.564000 0.998977 444.149660
274 6.588000 1.000720 448.183784
275 6.612000 1.001401 451.762677
276 6.636000 1.002573 455.580559
277 6.660000 1.002576 458.883380
278 6.684000 1.003875 462.795300
279 6.708000 1.003938 466.154077
280 6.732000 1.004294 469.662347
281 6.756000 1.006219 473.923378
282 6.780000 1.006170 477.273239
283 6.804000 1.005682 480.425232
284 6.828000 1.005486 483.726011
285 6.852000 1.006906 487.820799
286 6.876000 1.006647 491.117453
287 6.900000 1.007281 494.863672
288 6.924000 1.007622 498.480730
289 6.948000 1.008066 502.163368
290 6.972000 1.009904 506.560602
291 6.996000 1.010838 510.525936
292 7.020000 1.009550 513.379568
293 7.044000 1.009348 516.792259
294 7.068000 1.010426 520.875964
295 7.092000 1.010343 524.375984
296 7.116000 1.010031 527.767885
297 7.140000 1.010149 531.395942
298 7.164000 1.011104 535.480355
299 7.188000 1.010678 538.846840
300 7.212000 1.009864 542.014624
301 7.236000 1.009265 545.304321
302 7.260000 1.010443 549.568185
303 7.284000 1.009388 552.630307
304 7.308000 1.010736 557.020832
305 7.332000 1.009485 559.991125
306 7.356000 1.008997 563.391192
307 7.380000 1.009218 567.197158
308 7.404000 1.009684 571.156202
309 7.428000 1.009322 574.659098
310 7.452000 1.009401 578.423774
311 7.476000 1.009144 582.007083
312 7.500000 1.009061 585.701554
313 7.524000 1.009300 589.595892
314 7.548000 1.008968 593.167993
315 7.572000 1.009246 597.110412
316 7.596000 1.008580 600.505437
317 7.620000 1.009436 604.818674
318 7.644000 1.008889 608.304779
319 7.668000 1.007603 611.350694
320 7.692000 1.008044 615.452523
321 7.716000 1.007622 619.039957
322 7.740000 1.008109 623.197992
323 7.764000 1.006764 626.232282
324 7.788000 1.006482 629.932878
325 7.812000 1.006806 634.025874
326 7.836000 1.006656 637.832090
327 7.860000 1.006949 641.932336
328 7.884000 1.006336 645.465106
329 7.908000 1.005697 648.988209
330 7.932000 1.005080 652.532894
331 7.956000 1.004533 656.130828
332 7.980000 1.004626 660.156202
333 8.004000 1.003812 663.595184
334 8.028000 1.002879 666.960252
335 8.052000 1.003432 671.323862
336 8.076000 1.002390 674.630307
337 8.100000 1.001949 678.347444
338 8.124000 1.001598 682.134369
339 8.148000 1.001526 686.121120
340 8.172000 1.001206 689.948669
341 8.196000 0.999882 693.089163
342 8.220000 0.999324 696.764968
343 8.244000 0.998806 700.476438
344 8.268000 0.998210 704.140452
345 8.292000 0.998139 708.184284
346 8.316000 0.997751 712.012333
347 8.340000 0.997692 716.085830
348 8.364000 0.996953 719.679472
349 8.388000 0.997241 724.025249
350 8.412000 0.995988 727.259364
351 8.436000 0.995741 731.233240
352 8.460000 0.994714 734.641348
353 8.484000 0.994483 738.644431
354 8.508000 0.994667 742.966335
355 8.532000 0.994746 747.223657
356 8.556000 0.993956 750.835965
357 8.580000 0.994023 755.105329
358 8.604000 0.994129 759.416441
359 8.628000 0.994184 763.701387
360 8.652000 0.992547 766.691346
361 8.676000 0.993332 771.560352
362 8.700000 0.993353 775.851423
363 8.724000 0.993241 780.050331
364 8.748000 0.992777 783.981417
365 8.772000 0.994376 789.558310
366 8.796000 0.995295 794.619141
367 8.820000 0.995975 799.506937
368 8.844000 0.994730 802.858881
369 8.868000 0.994394 806.949294
370 8.892000 0.994958 811.783676
371 8.916000 0.994030 815.410400
372 8.940000 0.994542 820.228365
373 8.964000 0.994158 824.320028
374 8.988000 0.995215 829.620932
375 9.012000 0.995602 834.381442
376 9.036000 0.995246 838.531561
377 9.060000 0.994919 842.715220
378 9.084000 0.996610 848.625099
379 9.108000 0.995788 852.412024
380 9.132000 0.996550 857.565518
381 9.156000 0.996165 861.746636
382 9.180000 0.997058 867.046790
383 9.204000 0.996138 870.781259
384 9.228000 0.996914 876.010791
385 9.252000 0.997876 881.422607
386 9.276000 0.998820 886.839590
387 9.300000 0.999581 892.114579
388 9.324000 0.999181 896.366026
389 9.348000 1.000452 902.131995
390 9.372000 0.999870 906.243282
391 9.396000 0.999901 910.918712
392 9.420000 1.000448 916.078747
393 9.444000 1.000663 920.950627
394 9.468000 1.001193 926.127536
395 9.492000 1.000728 930.396233
396 9.516000 1.001267 935.610558
397 9.540000 1.002265 941.273655
398 9.564000 1.002233 945.984917
399 9.588000 1.002082 950.595392
400 9.612000 1.002224 955.496313
401 9.636000 1.002009 960.067581
402 9.660000 1.003128 965.933003
403 9.684000 1.002421 970.054706
404 9.708000 1.001976 974.436398
405 9.732000 1.002267 979.544061
406 9.756000 1.002682 984.789009
407 9.780000 1.002395 989.357443
408 9.804000 1.002479 994.302696
409 9.828000 1.003002 999.697304
410 9.852000 1.003338 1004.922878
411 9.876000 1.003157 1009.642640
412 9.900000 1.003899 1015.305987
413 9.924000 1.003666 1019.998125
414 9.948000 1.003493 1024.760635
415 9.972000 1.003664 1029.886630
416 9.996000 1.003858 1035.050206
417 10.020000 1.002813 1038.943627
418 10.044000 1.004123 1045.290113
419 10.068000 1.003639 1049.785467
420 10.092000 1.003756 1054.918712
421 10.116000 1.003253 1059.410900
422 10.140000 1.003432 1064.634640
423 10.164000 1.003281 1069.519228
424 10.188000 1.003490 1074.799967
425 10.212000 1.003460 1079.836548
426 10.236000 1.002241 1083.600475
427 10.260000 1.003385 1089.930295
428 10.284000 1.003237 1094.873880
429 10.308000 1.003754 1100.557602
430 10.332000 1.003523 1105.433524
431 10.356000 1.003876 1110.965751
432 10.380000 1.003153 1115.317778
433 10.404000 1.002714 1119.990334
434 10.428000 1.002866 1125.334153
435 10.452000 1.003227 1130.927461
436 10.476000 1.002350 1135.133953
437 10.500000 1.002543 1140.560102
438 10.524000 1.001863 1145.003292
439 10.548000 1.002009 1150.399108
440 10.572000 1.003052 1156.843132
441 10.596000 1.002465 1161.421191
442 10.620000 1.001843 1165.963835
443 10.644000 1.001352 1170.665847
444 10.668000 1.001395 1176.001917
445 10.692000 1.001303 1181.190575
446 10.716000 1.001070 1186.223366
447 10.740000 1.001325 1191.845465
448 10.764000 1.001248 1197.086746
449 10.788000 1.000913 1202.028624
450 10.812000 1.001199 1207.727261
451 10.836000 1.001032 1212.892463
452 10.860000 1.000783 1217.968168
453 10.884000 1.000415 1222.908254
454 10.908000 1.001232 1229.310237
455 10.932000 1.000352 1233.640932
456 10.956000 1.000373 1239.088705
457 10.980000 1.000593 1244.797842
458 11.004000 1.000576 1250.223782
459 11.028000 1.000276 1255.307321
460 11.052000 1.000776 1261.406900
461 11.076000 1.000958 1267.121828
462 11.100000 1.000488 1272.020749
463 11.124000 1.000211 1277.174409
464 11.148000 1.001037 1283.750760
465 11.172000 1.000907 1289.115912
466 11.196000 1.000496 1294.128828
467 11.220000 0.999673 1298.614099
468 11.244000 1.000117 1304.755469
469 11.268000 1.000447 1310.763885
470 11.292000 1.000702 1316.688013
471 11.316000 1.000783 1322.398733
472 11.340000 1.000895 1328.161785
473 11.364000 1.000466 1333.218199
474 11.388000 1.000810 1339.316528
475 11.412000 1.000326 1344.317070
476 11.436000 1.000814 1350.635057
477 11.460000 1.000929 1356.466814
478 11.484000 1.000854 1362.051248
479 11.508000 1.001281 1368.334778
480 11.532000 1.001150 1373.868464
481 11.556000 1.000666 1378.925503
482 11.580000 1.001147 1385.324153
483 11.604000 1.000978 1390.838173
484 11.628000 1.000049 1395.300571
485 11.652000 1.000404 1401.563977
486 11.676000 1.000479 1407.449065
487 11.700000 1.001096 1414.112079
488 11.724000 1.000838 1419.553394
489 11.748000 1.000596 1425.027874
490 11.772000 1.001521 1432.178409
491 11.796000 1.001217 1437.587934
492 11.820000 1.000863 1442.932336
493 11.844000 1.000878 1448.820841
494 11.868000 1.001092 1455.009250
495 11.892000 1.000585 1460.159118
496 11.916000 1.001110 1466.828049
497 11.940000 1.000986 1472.560060
498 11.964000 1.000480 1477.739219
499 11.988000 1.000602 1483.854756
